# SeaFEM body drift results file v.1.0
DataSets	Body data Auto1
SubSets	Drift
numResults	6
time[s]	Fx_correction[N]	Fy_correction[N]	Fz_correction[N]	Mx_correction[N]	My_correction[N]	Mz_correction[N]
0.501506	154.23	-3.56787	-116.55	46.0811	-5.42327	10.0387
0.511339	157.692	-4.23358	-115.461	45.4129	16.2579	8.94899
0.521172	161.026	-4.89768	-114.841	43.8087	30.5894	12.3764
0.531006	164.142	-5.57347	-114.012	47.443	49.2215	2.50166
0.540839	167.136	-6.23603	-113.893	45.532	53.7546	9.4527
0.550673	169.89	-6.89669	-113.614	49.8262	60.9168	1.6959
0.560506	172.493	-7.53479	-113.918	50.4638	54.9761	5.56536
0.57034	174.875	-8.16039	-114.197	55.009	47.9407	1.21717
0.580173	177.097	-8.75859	-114.886	57.8267	30.2902	3.28522
0.590007	179.129	-9.33829	-115.581	62.9604	10.2649	1.13483
0.59984	181.021	-9.87941	-116.663	68.0657	-19.9595	1.80526
0.609673	182.753	-10.4339	-117.298	70.8801	-44.3161	5.36363
0.619507	184.355	-10.9537	-118.096	75.8695	-73.329	6.06343
0.62934	185.855	-11.3783	-119.678	90.5335	-117.886	-6.70611
0.639174	187.263	-11.9383	-119.431	83.7131	-129.946	12.2377
0.649007	188.578	-12.3151	-120.839	101.503	-171.722	-5.17546
0.658841	189.833	-12.8224	-120.412	97.8309	-178.032	7.63559
0.668674	191.022	-13.203	-120.991	110.45	-201.403	-2.83217
0.678507	192.154	-13.6583	-120.292	110.446	-196.849	2.62709
0.688341	193.233	-14.0323	-120.081	119.248	-198.694	-4.07857
0.698174	194.249	-14.4405	-119.009	121.004	-178.898	-3.19365
0.708008	195.207	-14.7886	-118.169	127.365	-159.971	-8.54338
0.717841	196.089	-15.1401	-116.793	129.808	-125.36	-10.4043
0.727675	196.893	-15.4357	-115.57	134.651	-90.4272	-15.3947
0.737508	197.6	-15.7075	-114.084	137.326	-46.3479	-18.6818
0.747342	198.209	-15.9154	-112.824	140.951	-5.01562	-22.5762
0.757175	198.673	-16.087	-111.266	145.258	45.6007	-29.7043
0.767008	199.061	-16.1595	-110.473	146.706	76.4422	-28.7139
0.776842	199.249	-16.1939	-109.183	151.948	120.932	-36.9336
0.786675	199.354	-16.1009	-108.907	155.112	136.117	-36.8944
0.796509	199.257	-15.9667	-108.157	159.069	161.833	-41.5125
0.806342	199.041	-15.7287	-107.979	160.181	167.917	-39.5377
0.816176	198.678	-15.3597	-108.415	167.936	153.968	-44.0653
0.826009	198.165	-14.9459	-108.582	168.413	141.566	-40.6903
0.835843	197.533	-14.3876	-109.54	175.357	103.122	-42.3135
0.845676	196.771	-13.7753	-110.278	177.399	65.516	-39.0722
0.855509	195.931	-13.037	-111.677	181.763	4.88293	-35.7244
0.865343	194.953	-12.2347	-112.746	190.691	-48.4234	-40.679
0.875176	193.909	-11.3721	-113.749	195.427	-103.117	-40.7628
0.88501	192.904	-10.4692	-115.002	180.004	-170.643	-13.4754
0.894843	191.681	-9.41546	-116.108	209.337	-224.79	-45.2322
0.904677	190.61	-8.43769	-116.842	186.582	-276.996	-12.0793
0.91451	189.368	-7.31785	-117.546	206.939	-317.366	-34.2621
0.924344	188.23	-6.25275	-117.779	193.024	-346.497	-15.6237
0.934177	187.006	-5.10821	-117.825	202.611	-360.793	-27.5805
0.94401	185.841	-3.99453	-117.439	193.412	-359.901	-18.5276
0.953844	184.633	-2.84079	-116.8	195.883	-343.075	-25.3625
0.963677	183.453	-1.70469	-115.81	188.034	-310.889	-21.6364
0.973511	182.246	-0.547926	-114.605	185.661	-264.772	-26.0016
0.983344	181.041	0.601153	-113.174	177.44	-206.695	-24.9467
0.993178	179.802	1.76486	-111.635	171.578	-139.682	-27.8231
1.00301	178.549	2.93753	-110.116	162.381	-69.9294	-27.415
1.01284	177.253	4.11523	-108.559	151.191	3.5686	-25.6486
1.02268	175.899	5.3132	-107.094	141.757	75.7355	-26.4175
1.03251	174.416	6.51146	-105.305	138.609	160.085	-36.3388
1.04234	173.028	7.77043	-104.886	116.095	192.587	-19.8925
1.05218	171.371	9.00696	-103.388	115.4	262.978	-32.8117
1.06201	169.779	10.3267	-103.418	101.265	273.777	-25.8648
1.07185	167.997	11.607	-102.729	91.6252	305.137	-27.1157
1.08168	166.24	12.9196	-103.069	65.1225	291.978	-7.01052
1.09151	164.238	14.296	-103.269	73.5667	282.426	-25.9266
1.10135	162.298	15.61	-103.981	42.8441	243.283	-1.24491
1.11118	160.139	16.9855	-104.721	45.7202	201.951	-12.9888
1.12101	157.99	18.303	-105.744	23.3729	142.487	2.84985
1.13085	155.684	19.6321	-106.74	19.6688	82.768	-1.41561
1.14068	153.32	20.9267	-107.842	12.2008	16.5734	-1.50288
1.15051	150.882	22.1615	-108.787	1.43321	-45.0345	1.50152
1.16035	148.463	23.271	-109.624	-37.884	-104.912	34.113
1.17018	145.752	24.475	-110.288	-7.71729	-148.613	-6.1018
1.18001	143.225	25.4058	-110.644	-58.5143	-185.545	37.2917
1.18985	140.41	26.4093	-110.745	-40.1685	-201.212	8.7118
1.19968	137.692	27.1906	-110.496	-74.8031	-203.062	34.2172
1.20951	134.782	27.9595	-109.94	-71.2191	-183.568	20.1042
1.21935	131.887	28.557	-109.058	-95.7442	-147.77	34.3298
1.22918	128.856	29.0953	-107.906	-100.578	-93.6585	28.285
1.23901	125.791	29.4955	-106.515	-119.908	-25.9234	36.7766
1.24885	122.614	29.8198	-104.957	-129.072	53.7689	35.0444
1.25868	119.393	30.0366	-103.414	-147.238	135.625	42.6605
1.26851	116.065	30.1634	-101.715	-162.019	225.548	47.068
1.27835	112.654	30.2162	-100.141	-176	310.858	51.2977
1.28818	109.034	30.2101	-98.1218	-167.359	413.185	33.1974
1.29801	105.592	30.1127	-97.5696	-208.351	451.351	66.2407
1.30785	101.752	29.9937	-95.8149	-190.383	534.999	40.7979
1.31768	98.0892	29.805	-95.659	-220.38	546.197	64.7951
1.32751	94.1343	29.5888	-94.8033	-211.559	579.435	51.0556
1.33735	90.2509	29.3307	-95.1085	-228.119	557.091	64.172
1.34718	86.1734	29.0389	-95.1333	-223.404	538.48	57.3531
1.35701	82.1081	28.7155	-95.9727	-230.649	478.994	64.0219
1.36685	77.9116	28.3528	-96.7239	-226.103	416.391	60.289
1.37668	73.7182	27.9868	-98.2979	-222.657	315.623	59.3997
1.38652	69.4318	27.4844	-99.2099	-231.001	235.537	70.8736
1.39635	65.082	26.9574	-100.302	-229.171	146.424	73.7435
1.40618	60.67	26.5812	-102.691	-178.247	9.93668	30.09
1.41602	56.3423	25.7432	-102.916	-230.755	-47.5747	87.9527
1.42585	51.8297	25.2637	-105.099	-165.339	-170.17	31.6902
1.43568	47.4315	24.35	-105.265	-197.96	-215.501	71.6668
1.44552	42.92	23.6344	-106.559	-155.268	-293.229	38.5418
1.45535	38.4647	22.6317	-106.399	-166.744	-310.724	58.5882
1.46518	33.9645	21.7023	-106.744	-138.651	-337.04	40.113
1.47502	29.4936	20.5818	-106.041	-138.717	-316.74	49.14
1.48485	25.0172	19.4734	-105.516	-118.505	-294.079	38.3103
1.49468	20.5646	18.2378	-104.267	-112.834	-237.776	41.5324
1.50452	16.1325	16.9942	-103.087	-96.7512	-177.574	34.5044
1.51435	11.6777	15.6547	-101.039	-83.066	-80.4476	29.0064
1.52418	7.33761	14.3416	-99.7552	-70.6043	-9.72826	25.6538
1.53402	3.15526	13.0236	-99.1354	-73.3364	34.7628	38.6265
1.54385	-1.31351	11.614	-96.0367	-38.5903	174.32	10.6941
1.55368	-5.30375	10.3441	-96.3917	-45.9631	176.717	29.9557
1.56352	-9.5828	8.98493	-94.097	-16.3898	276.411	8.29389
1.57335	-13.4605	7.76249	-94.6915	-19.5828	258.249	24.1814
1.58318	-17.5464	6.52081	-93.4615	13.888	303.601	0.055683
1.59302	-21.2596	5.3696	-94.4956	8.37765	252.808	19.442
1.60285	-25.1151	4.29786	-94.6651	49.4305	229.844	-10.4332
1.61268	-28.6432	3.26655	-96.3307	48.8471	139.889	5.09226
1.62252	-32.2191	2.32309	-97.6128	81.7815	60.0886	-14.853
1.63235	-35.5431	1.39627	-99.6511	83.055	-56.0136	-0.690927
1.64218	-38.7694	0.603729	-102.378	106.327	-198.968	-8.45687
1.65202	-41.903	-0.215761	-104.498	119.092	-322.831	-6.66572
1.66185	-45.0206	-0.917987	-106.629	166.642	-443.441	-42.1576
1.67169	-47.6918	-1.6804	-109.86	140.757	-608.774	1.50886
1.68152	-50.6098	-2.3476	-111.338	193.691	-698.765	-42.4743
1.69135	-53.0765	-3.06492	-113.975	177.202	-831.366	-11.1656
1.70119	-55.6727	-3.74823	-115.036	209.843	-894.932	-36.2731
1.71102	-57.9602	-4.46476	-116.542	203.452	-969.736	-19.6684
1.72085	-60.2696	-5.18645	-116.787	221.404	-987.615	-32.7434
1.73069	-62.3609	-5.9345	-117.019	218.307	-997.584	-24.2151
1.74052	-64.4172	-6.70286	-116.242	226.473	-961.048	-30.9567
1.75035	-66.3031	-7.49045	-115.258	223.075	-909.467	-26.6451
1.76019	-68.1216	-8.29571	-113.524	224.565	-823.011	-30.1905
1.77002	-69.7965	-9.10731	-111.589	219.603	-723.717	-28.0971
1.77985	-71.3652	-9.90068	-109.458	218.396	-612.403	-31.315
1.78969	-72.8659	-10.7314	-106.574	212.492	-471.242	-32.2167
1.79952	-74.1597	-11.5302	-104.07	194.431	-348.265	-18.926
1.80935	-75.378	-12.2959	-101.679	180.901	-225.174	-11.926
1.81919	-76.6365	-12.8917	-99.4052	222.666	-107.142	-64.3127
1.82902	-77.4645	-13.7033	-97.2314	151.1	-9.46396	5.11811
1.83885	-78.5174	-14.1625	-95.7877	202.096	68.3987	-56.3293
1.84869	-79.181	-14.804	-94.4464	151.209	123.347	-8.07679
1.85852	-79.9519	-15.1926	-93.8668	177.527	150.848	-41.5933
1.86835	-80.4756	-15.6504	-93.5552	148.421	153.674	-15.0394
1.87819	-81.0643	-15.9567	-93.6725	165.51	139.207	-40.6462
1.88802	-81.3598	-16.2089	-95.0412	143.472	64.0626	-11.8727
1.89785	-81.6999	-16.4746	-96.0745	127.504	-0.142014	-0.648059
1.90769	-82.1735	-16.6989	-96.0767	143.668	-31.5991	-22.8809
1.91752	-82.3467	-16.808	-98.5127	132.31	-154.976	-8.51139
1.92735	-82.6847	-16.9998	-99.2086	129.85	-215.377	-9.87034
1.93719	-82.9173	-17.1109	-101.046	125.482	-314.811	-4.90462
1.94702	-83.3301	-17.3671	-100.562	119.405	-330.701	-5.49303
1.95685	-83.6402	-17.5168	-101.76	113.982	-397.414	-0.460615
1.96669	-84.0696	-17.7544	-101.612	107.827	-411.435	1.12008
1.97652	-84.5827	-18.0342	-100.901	101.195	-396.446	2.65948
1.98636	-85.1593	-18.34	-99.8888	94.4826	-362.466	3.80863
1.99619	-85.7797	-18.6476	-98.9482	88.2969	-322.129	5.25177
2.00602	-86.6948	-19.1474	-95.2057	79.1532	-172.136	3.38186
2.01586	-87.5184	-19.5312	-93.2743	72.7742	-81.2669	3.69328
2.02569	-88.5674	-20.0326	-89.594	65.1415	79.1639	1.66725
2.03552	-89.6511	-20.4976	-86.4441	58.8469	224.152	0.190172
2.04536	-90.8766	-20.9979	-82.6616	52.7518	393.684	-2.40824
2.05519	-92.1186	-21.422	-79.8108	50.5333	529.316	-5.89373
2.06502	-93.6357	-22.003	-74.5339	39.7291	747.538	-6.74764
2.07486	-94.9698	-22.2965	-73.0277	43.7044	826.13	-11.9958
2.08469	-96.5763	-22.7378	-69.0742	38.1448	983.19	-13.709
2.09452	-98.1104	-22.9915	-67.3845	40.5578	1049.58	-17.4738
2.10436	-99.7564	-23.2662	-64.9219	35.9148	1127.15	-15.4495
2.11419	-101.433	-23.3269	-65.011	51.8312	1117.67	-28.9325
2.12402	-103.123	-23.4521	-63.6419	43.8127	1125.2	-20.1476
2.13386	-104.854	-23.3698	-64.5859	57.3059	1053.09	-28.6673
2.14369	-106.494	-23.3079	-65.4642	33.3472	956.564	3.08962
2.15352	-108.598	-23.0015	-66.8399	108.59	866.893	-71.4165
2.16336	-110.127	-22.8125	-69.3483	51.2916	685.493	0.335874
2.17319	-112.169	-22.4062	-71.5685	101.656	540.321	-45.3136
2.18302	-113.99	-22.0382	-74.5395	87.2497	351.437	-19.2033
2.19286	-116.003	-21.5742	-77.3121	109.117	176.723	-32.9197
2.20269	-118	-21.11	-80.1904	111.327	-1.79529	-25.3178
2.21252	-120.097	-20.6113	-82.7911	123.145	-163.888	-28.8753
2.22236	-122.241	-20.1138	-85.097	129.148	-308.916	-26.9708
2.23219	-124.458	-19.6126	-86.9451	136.977	-428.827	-28.2201
2.24202	-126.737	-19.1214	-88.2711	142.597	-521.077	-28.3888
2.25186	-129.071	-18.6395	-89.0238	147.954	-583.192	-29.6854
2.26169	-131.452	-18.1695	-89.1932	152.035	-615.332	-31.0332
2.27153	-133.866	-17.7075	-88.8089	155.387	-619.313	-32.961
2.28136	-136.292	-17.2485	-87.9348	157.84	-598.797	-35.1537
2.29119	-138.713	-16.784	-86.6731	159.614	-559.089	-37.6555
2.30103	-141.165	-16.3535	-84.3654	159.354	-479.467	-40.7523
2.31086	-143.339	-15.7218	-84.6933	163.629	-489.543	-42.3266
2.32069	-145.739	-15.2949	-81.1764	160.627	-367.813	-46.0695
2.33053	-147.775	-14.6146	-81.113	163.034	-366.904	-47.5728
2.34036	-149.822	-13.9912	-79.4402	162.155	-316.878	-50.0468
2.35019	-151.618	-13.2226	-79.4633	163.03	-330.443	-51.0592
2.36003	-153.212	-12.3812	-79.9799	161.644	-371.292	-49.3266
2.36986	-154.873	-11.5356	-79.3038	178.822	-370.459	-72.4127
2.37969	-155.727	-10.4302	-84.0627	144.559	-575.078	-23.7163
2.38953	-156.995	-9.40533	-84.2389	178.639	-623.702	-67.2261
2.39936	-157.552	-8.1769	-89.3306	158.513	-848.634	-36.1438
2.40919	-158.145	-6.94195	-92.6769	171.137	-1018.83	-48.9196
2.41903	-158.344	-5.6051	-98.0196	165.077	-1260.21	-35.9502
2.42886	-158.495	-4.2251	-102.404	191.203	-1471.43	-65.0921
2.43869	-158.04	-2.84831	-109.82	132.888	-1781.39	15.0683
2.44853	-157.877	-1.39847	-113.79	187.843	-1976.01	-52.0122
2.45836	-157.115	-0.0040078	-120.404	150.125	-2253.1	-0.477714
2.46819	-156.419	1.39942	-125.07	166.989	-2458.12	-20.3125
2.47803	-155.416	2.74241	-130.095	151.628	-2667.89	-0.555316
2.48786	-154.332	4.04052	-133.991	151.664	-2830.37	-2.13618
2.49769	-153.065	5.2631	-137.304	141.818	-2964.21	6.87518
2.50753	-151.676	6.41044	-139.609	135.204	-3054.51	9.85168
2.51736	-150.143	7.47087	-141.035	125.192	-3106.22	15.1831
2.52719	-148.475	8.44503	-141.512	115.305	-3117.59	18.5724
2.53703	-146.663	9.33237	-141.139	103.981	-3093.17	22.193
2.54686	-144.699	10.1385	-140.009	92.2902	-3037.37	25.0099
2.55669	-142.569	10.8705	-138.274	80.0316	-2957.06	27.635
2.56653	-140.355	11.4762	-134.981	67.5186	-2824.06	27.5441
2.57636	-137.626	12.2449	-135.392	55.5631	-2807.81	35.5123
2.5862	-135.129	12.6688	-130.199	43.3697	-2615.06	31.7248
2.59603	-132.048	13.3133	-129.789	32.2262	-2576.34	37.7904
2.60586	-128.937	13.79	-126.917	21.8755	-2466.57	37.774
2.6157	-125.45	14.3467	-126.218	12.6184	-2431.48	41.712
2.62553	-121.758	14.8697	-125.278	8.45766	-2400.15	39.4276
2.63536	-117.79	15.3851	-125.69	-6.8513	-2411.34	53.9901
2.6452	-113.542	15.9498	-126.508	-2.62193	-2456.86	46.5671
2.65503	-109.046	16.4832	-128.287	-11.1486	-2534.14	57.3097
2.66486	-104.303	17.0402	-130.739	-9.05119	-2643.84	57.4657
2.6747	-99.3294	17.5759	-133.78	-10.0612	-2778.39	63.6798
2.68453	-94.1542	18.0991	-137.265	-6.66869	-2932.81	66.6736
2.69436	-88.7417	18.6271	-141.717	-2.3354	-3121.01	72.524
2.7042	-83.3661	18.9651	-143.658	2.31702	-3231.38	72.0683
2.71403	-77.6084	19.4416	-149	10.9222	-3447.81	78.5416
2.72386	-71.9747	19.675	-150.959	18.8965	-3554.5	78.4683
2.7337	-66.1558	19.9146	-154.102	29.2773	-3692.05	80.7857
2.74353	-60.3815	19.9926	-155.379	40.2036	-3763.22	80.161
2.75336	-54.5656	19.986	-156.253	52.398	-3811.78	79.3588
2.7632	-48.7913	19.8419	-155.747	65.3863	-3805.78	76.7008
2.77303	-43.0415	19.5832	-154.284	79.2618	-3757.46	73.0287
2.78286	-37.3446	19.1984	-151.619	93.8948	-3658.8	67.8729
2.7927	-31.7015	18.7003	-147.949	109.317	-3516.13	61.5116
2.80253	-26.1146	18.095	-143.311	125.504	-3331.43	53.9307
2.81236	-20.5802	17.3981	-137.908	142.537	-3112.32	45.2779
2.8222	-15.0915	16.6245	-131.909	160.437	-2866.04	35.7172
2.83203	-9.63213	15.7937	-125.549	179.318	-2602.12	25.4025
2.84186	-4.24175	14.9057	-118.596	201.565	-2314.72	11.1222
2.8517	1.29787	14.0682	-113.332	216.902	-2083.85	8.33298
2.86153	6.62616	13.1378	-106.138	244.856	-1788.14	-11.4549
2.87137	12.1429	12.3073	-101.308	264.763	-1576.12	-17.2548
2.8812	17.5831	11.4668	-96.027	291.619	-1354.43	-31.608
2.89103	23.1064	10.7054	-92.1942	316.478	-1188.87	-40.6034
2.90087	28.626	9.99157	-88.8913	344.225	-1049.79	-51.8768
2.9107	34.1836	9.3547	-86.6775	372.037	-956.767	-61.1625
2.92053	39.7386	8.78556	-85.2374	401.122	-899.429	-70.6289
2.93037	45.2912	8.28976	-84.6469	430.474	-879.774	-79.1039
2.9402	50.807	7.85961	-84.7059	460.152	-890.077	-87.21
2.95003	56.2656	7.48954	-85.2987	489.578	-924.776	-94.6615